ENVI
description = {
  Resampled Spectral Library [Mon Apr 21 16:10:04 2008]}
samples = 260
lines   = 19
bands   = 1
header offset = 0
file type = ENVI Spectral Library
data type = 4
interleave = bsq
sensor type = Unknown
byte order = 0
wavelength units = Nanometers
band names = {
 Resampled (Band 1:btw20_45.sli)}
spectra names = {
 soil_10084, soil_12001, soil_12030, soil_14141, soil_14163, soil_14259, 
 soil_14260, soil_15041, soil_15071, soil_61141, soil_61221, soil_62231, 
 soil_64801, soil_67461, soil_67481, soil_70181, soil_71061, soil_71501, 
 soil_79221}
wavelength = {
  404.200012,  414.200012,  424.190002,  434.190002,  444.179993,  454.179993,
  464.170013,  474.170013,  484.160004,  494.160004,  504.149994,  514.150024,
  524.140015,  534.140015,  544.130005,  554.130005,  564.119995,  574.119995,
  584.109985,  594.109985,  604.099976,  614.099976,  624.090027,  634.090027,
  644.080017,  654.080017,  664.070007,  674.070007,  684.059998,  694.059998,
  704.049988,  714.049988,  724.039978,  734.039978,  744.030029,  754.030029,
  764.020020,  774.020020,  784.010010,  794.010010,  804.000000,  814.000000,
  823.989990,  833.989990,  843.979980,  853.979980,  863.969971,  873.969971,
  883.960022,  893.960022,  903.950012,  913.950012,  923.940002,  933.940002,
  943.929993,  953.929993,  963.919983,  973.919983,  983.909973,  993.909973,
 1003.900024, 1013.900024, 1023.890015, 1033.890015, 1043.880005, 1053.880005,
 1063.869995, 1073.869995, 1083.859985, 1093.859985, 1103.849976, 1113.849976,
 1123.839966, 1133.839966, 1143.829956, 1153.829956, 1163.819946, 1173.819946,
 1183.810059, 1193.810059, 1203.800049, 1213.800049, 1223.790039, 1233.790039,
 1243.780029, 1253.780029, 1263.770020, 1273.770020, 1283.760010, 1293.760010,
 1303.750000, 1313.750000, 1323.739990, 1333.739990, 1343.729980, 1353.729980,
 1363.719971, 1373.719971, 1383.709961, 1393.709961, 1403.699951, 1413.699951,
 1423.689941, 1433.689941, 1443.680054, 1453.680054, 1463.670044, 1473.670044,
 1483.660034, 1493.660034, 1503.650024, 1513.650024, 1523.640015, 1533.640015,
 1543.630005, 1553.630005, 1563.619995, 1573.619995, 1583.609985, 1593.609985,
 1603.599976, 1613.599976, 1623.589966, 1633.589966, 1643.579956, 1653.579956,
 1663.569946, 1673.569946, 1683.560059, 1693.560059, 1703.550049, 1713.550049,
 1723.540039, 1733.540039, 1743.530029, 1753.530029, 1763.520020, 1773.520020,
 1783.510010, 1793.510010, 1803.500000, 1813.500000, 1823.489990, 1833.489990,
 1843.479980, 1853.479980, 1863.469971, 1873.469971, 1883.459961, 1893.459961,
 1903.449951, 1913.449951, 1923.439941, 1933.439941, 1943.430054, 1953.430054,
 1963.420044, 1973.420044, 1983.410034, 1993.410034, 2003.400024, 2013.400024,
 2023.390015, 2033.390015, 2043.380005, 2053.379883, 2063.370117, 2073.370117,
 2083.360107, 2093.360107, 2103.350098, 2113.350098, 2123.340088, 2133.340088,
 2143.330078, 2153.330078, 2163.320068, 2173.320068, 2183.310059, 2193.310059,
 2203.300049, 2213.300049, 2223.290039, 2233.290039, 2243.280029, 2253.280029,
 2263.270020, 2273.270020, 2283.260010, 2293.260010, 2303.250000, 2313.250000,
 2323.239990, 2333.239990, 2343.229980, 2353.229980, 2363.219971, 2373.219971,
 2383.209961, 2393.209961, 2403.199951, 2413.199951, 2423.189941, 2433.189941,
 2443.179932, 2453.179932, 2463.169922, 2473.169922, 2483.159912, 2493.159912,
 2503.149902, 2513.149902, 2523.139893, 2533.139893, 2543.129883, 2553.129883,
 2563.120117, 2573.120117, 2583.110107, 2593.110107, 2603.100098, 2613.100098,
 2623.090088, 2633.090088, 2643.080078, 2653.080078, 2663.070068, 2673.070068,
 2683.060059, 2693.060059, 2703.050049, 2713.050049, 2723.040039, 2733.040039,
 2743.030029, 2753.030029, 2763.020020, 2773.020020, 2783.010010, 2793.010010,
 2803.000000, 2813.000000, 2822.989990, 2832.989990, 2842.979980, 2852.979980,
 2862.969971, 2872.969971, 2882.959961, 2892.959961, 2902.949951, 2912.949951,
 2922.939941, 2932.939941, 2942.929932, 2952.929932, 2962.919922, 2972.919922,
 2982.909912, 2992.909912}
fwhm = {
 13.760000, 13.740000, 13.730000, 13.710000, 13.690000, 13.680000, 13.660000,
 13.650000, 13.630000, 13.610000, 13.600000, 13.580000, 13.570000, 13.550000,
 13.540000, 13.520000, 13.510000, 13.490000, 13.470000, 13.460000, 13.440000,
 13.430000, 13.410000, 13.400000, 13.390000, 13.370000, 13.360000, 13.340000,
 13.330000, 13.310000, 13.300000, 13.280000, 13.270000, 13.250000, 13.240000,
 13.230000, 13.210000, 13.200000, 13.180000, 13.170000, 13.160000, 13.140000,
 13.130000, 13.120000, 13.100000, 13.090000, 13.080000, 13.060000, 13.050000,
 13.040000, 13.020000, 13.010000, 13.000000, 12.980000, 12.970000, 12.960000,
 12.940000, 12.930000, 12.920000, 12.910000, 12.890000, 12.880000, 12.870000,
 12.860000, 12.840000, 12.830000, 12.820000, 12.810000, 12.800000, 12.780000,
 12.770000, 12.760000, 12.750000, 12.740000, 12.720000, 12.710000, 12.700000,
 12.690000, 12.680000, 12.670000, 12.660000, 12.640000, 12.630000, 12.620000,
 12.610000, 12.600000, 12.590000, 12.580000, 12.570000, 12.560000, 12.550000,
 12.530000, 12.520000, 12.510000, 12.500000, 12.490000, 12.480000, 12.470000,
 12.460000, 12.450000, 12.440000, 12.430000, 12.420000, 12.410000, 12.400000,
 12.390000, 12.380000, 12.370000, 12.360000, 12.350000, 12.340000, 12.330000,
 12.330000, 12.320000, 12.310000, 12.300000, 12.290000, 12.280000, 12.270000,
 12.260000, 12.250000, 12.240000, 12.240000, 12.230000, 12.220000, 12.210000,
 12.200000, 12.190000, 12.180000, 12.180000, 12.170000, 12.160000, 12.150000,
 12.140000, 12.140000, 12.130000, 12.120000, 12.110000, 12.100000, 12.100000,
 12.090000, 12.080000, 12.070000, 12.070000, 12.060000, 12.050000, 12.040000,
 12.040000, 12.030000, 12.020000, 12.020000, 12.010000, 12.000000, 12.000000,
 11.990000, 11.980000, 11.980000, 11.970000, 11.960000, 11.960000, 11.950000,
 11.940000, 11.940000, 11.930000, 11.930000, 11.920000, 11.910000, 11.910000,
 11.900000, 11.900000, 11.890000, 11.880000, 11.880000, 11.870000, 11.870000,
 11.860000, 11.860000, 11.850000, 11.850000, 11.840000, 11.840000, 11.830000,
 11.830000, 11.820000, 11.820000, 11.810000, 11.810000, 11.800000, 11.800000,
 11.790000, 11.790000, 11.780000, 11.780000, 11.770000, 11.770000, 11.770000,
 11.760000, 11.760000, 11.750000, 11.750000, 11.750000, 11.740000, 11.740000,
 11.740000, 11.730000, 11.730000, 11.720000, 11.720000, 11.720000, 11.710000,
 11.710000, 11.710000, 11.700000, 11.700000, 11.700000, 11.700000, 11.690000,
 11.690000, 11.690000, 11.680000, 11.680000, 11.680000, 11.680000, 11.670000,
 11.670000, 11.670000, 11.670000, 11.670000, 11.660000, 11.660000, 11.660000,
 11.660000, 11.660000, 11.650000, 11.650000, 11.650000, 11.650000, 11.650000,
 11.650000, 11.640000, 11.640000, 11.640000, 11.640000, 11.640000, 11.640000,
 11.640000, 11.640000, 11.630000, 11.630000, 11.630000, 11.630000, 11.630000,
 11.630000, 11.630000, 11.630000, 11.630000, 11.630000, 11.630000, 11.630000,
 11.630000}
