ENVI
description = {
  Resampled Spectral Library [Sun Feb 22 15:20:00 2009]}
samples = 260
lines   = 43
bands   = 1
header offset = 0
file type = ENVI Spectral Library
data type = 4
interleave = bsq
sensor type = Unknown
byte order = 0
wavelength units = Nanometers
reflectance scale factor = 1.000000
band names = {
 Resampled (Spectral Library:LunarImpactMelt)}
spectra names = {
 12032.354_bulk, 12033.604_bulk, 15445.261_bulk, 15445.261_0-25_dry, 
 15445.261_25-45, 15445.261_45-75, 15445.261_0-25, 64455.128_bulk, 
 64455.128_0-25_dry, 64455.128_25-45, 64455.128_45-75, 64455.128_0-25, 
 67095.108_bulk, 67095.108_0-25_dry, 67095.108_25-45, 67095.108_45-75, 
 67095.108_0-25, 67475.219_bulk, 67627.13_bulk, 67627.17_bulk, 
 67627.17_0-25_dry, 67627.17_25-45, 67627.17_45-75, 67627.17_0-25, 
 67729.19_bulk, 67729.19_0-25_dry, 67729.19_25-45, 67729.19_45-75, 
 67729.19_0-25, 67936.29_bulk, 68815.384_bulk, 69935.87_bulk, 
 69935.87_0-25_dry, 69935.87_25-45, 69935.87_45-75, 69935.87_0-25, 
 69935.88_bulk, 72255.338_bulk, 72255.338_0-25_dry, 72255.338_25-45, 
 72255.338_45-75, 72255.338_0-25, 76055.78_bulk}
wavelength = {
  406.100000,  416.080000,  426.060000,  436.040000,  446.020000,  456.000000,
  465.980000,  475.960000,  485.950000,  495.930000,  505.910000,  515.890000,
  525.870000,  535.850000,  545.830000,  555.810000,  565.790000,  575.770000,
  585.760000,  595.740000,  605.720000,  615.700000,  625.680000,  635.660000,
  645.640000,  655.620000,  665.600000,  675.580000,  685.560000,  695.550000,
  705.530000,  715.510000,  725.490000,  735.470000,  745.450000,  755.430000,
  765.410000,  775.390000,  785.370000,  795.360000,  805.340000,  815.320000,
  825.300000,  835.280000,  845.260000,  855.240000,  865.220000,  875.200000,
  885.180000,  895.170000,  905.150000,  915.130000,  925.110000,  935.090000,
  945.070000,  955.050000,  965.030000,  975.010000,  984.990000,  994.970000,
 1004.960000, 1014.940000, 1024.920000, 1034.900000, 1044.880000, 1054.860000,
 1064.840000, 1074.820000, 1084.800000, 1094.780000, 1104.770000, 1114.750000,
 1124.730000, 1134.710000, 1144.690000, 1154.670000, 1164.650000, 1174.630000,
 1184.610000, 1194.590000, 1204.580000, 1214.560000, 1224.540000, 1234.520000,
 1244.500000, 1254.480000, 1264.460000, 1274.440000, 1284.420000, 1294.400000,
 1304.380000, 1314.370000, 1324.350000, 1334.330000, 1344.310000, 1354.290000,
 1364.270000, 1374.250000, 1384.230000, 1394.210000, 1404.190000, 1414.180000,
 1424.160000, 1434.140000, 1444.120000, 1454.100000, 1464.080000, 1474.060000,
 1484.040000, 1494.020000, 1504.000000, 1513.990000, 1523.970000, 1533.950000,
 1543.930000, 1553.910000, 1563.890000, 1573.870000, 1583.850000, 1593.830000,
 1603.810000, 1613.800000, 1623.780000, 1633.760000, 1643.740000, 1653.720000,
 1663.700000, 1673.680000, 1683.660000, 1693.640000, 1703.620000, 1713.600000,
 1723.590000, 1733.570000, 1743.550000, 1753.530000, 1763.510000, 1773.490000,
 1783.470000, 1793.450000, 1803.430000, 1813.410000, 1823.400000, 1833.380000,
 1843.360000, 1853.340000, 1863.320000, 1873.300000, 1883.280000, 1893.260000,
 1903.240000, 1913.220000, 1923.210000, 1933.190000, 1943.170000, 1953.150000,
 1963.130000, 1973.110000, 1983.090000, 1993.070000, 2003.050000, 2013.030000,
 2023.010000, 2033.000000, 2042.980000, 2052.960000, 2062.940000, 2072.920000,
 2082.900000, 2092.880000, 2102.860000, 2112.840000, 2122.820000, 2132.810000,
 2142.790000, 2152.770000, 2162.750000, 2172.730000, 2182.710000, 2192.690000,
 2202.670000, 2212.650000, 2222.630000, 2232.620000, 2242.600000, 2252.580000,
 2262.560000, 2272.540000, 2282.520000, 2292.500000, 2302.480000, 2312.460000,
 2322.440000, 2332.420000, 2342.410000, 2352.390000, 2362.370000, 2372.350000,
 2382.330000, 2392.310000, 2402.290000, 2412.270000, 2422.250000, 2432.230000,
 2442.220000, 2452.200000, 2462.180000, 2472.160000, 2482.140000, 2492.120000,
 2502.100000, 2512.080000, 2522.060000, 2532.040000, 2542.030000, 2552.010000,
 2561.990000, 2571.970000, 2581.950000, 2591.930000, 2601.910000, 2611.890000,
 2621.870000, 2631.850000, 2641.830000, 2651.820000, 2661.800000, 2671.780000,
 2681.760000, 2691.740000, 2701.720000, 2711.700000, 2721.680000, 2731.660000,
 2741.640000, 2751.630000, 2761.610000, 2771.590000, 2781.570000, 2791.550000,
 2801.530000, 2811.510000, 2821.490000, 2831.470000, 2841.450000, 2851.440000,
 2861.420000, 2871.400000, 2881.380000, 2891.360000, 2901.340000, 2911.320000,
 2921.300000, 2931.280000, 2941.260000, 2951.250000, 2961.230000, 2971.210000,
 2981.190000, 2991.170000}
fwhm = {
 12.330000, 12.330000, 12.320000, 12.310000, 12.310000, 12.300000, 12.300000,
 12.290000, 12.290000, 12.280000, 12.280000, 12.270000, 12.270000, 12.260000,
 12.260000, 12.260000, 12.250000, 12.250000, 12.250000, 12.240000, 12.240000,
 12.240000, 12.240000, 12.230000, 12.230000, 12.230000, 12.230000, 12.230000,
 12.220000, 12.220000, 12.220000, 12.220000, 12.220000, 12.220000, 12.220000,
 12.220000, 12.220000, 12.220000, 12.220000, 12.220000, 12.220000, 12.220000,
 12.220000, 12.220000, 12.220000, 12.230000, 12.230000, 12.230000, 12.230000,
 12.230000, 12.230000, 12.240000, 12.240000, 12.240000, 12.240000, 12.240000,
 12.250000, 12.250000, 12.250000, 12.260000, 12.260000, 12.260000, 12.260000,
 12.270000, 12.270000, 12.270000, 12.280000, 12.280000, 12.290000, 12.290000,
 12.290000, 12.300000, 12.300000, 12.310000, 12.310000, 12.310000, 12.320000,
 12.320000, 12.330000, 12.330000, 12.340000, 12.340000, 12.350000, 12.350000,
 12.360000, 12.360000, 12.370000, 12.370000, 12.380000, 12.380000, 12.390000,
 12.390000, 12.400000, 12.400000, 12.410000, 12.410000, 12.420000, 12.420000,
 12.430000, 12.430000, 12.440000, 12.450000, 12.450000, 12.460000, 12.460000,
 12.470000, 12.470000, 12.480000, 12.480000, 12.490000, 12.500000, 12.500000,
 12.510000, 12.510000, 12.520000, 12.520000, 12.530000, 12.530000, 12.540000,
 12.550000, 12.550000, 12.560000, 12.560000, 12.570000, 12.570000, 12.580000,
 12.580000, 12.590000, 12.590000, 12.600000, 12.600000, 12.610000, 12.610000,
 12.620000, 12.620000, 12.630000, 12.630000, 12.640000, 12.640000, 12.650000,
 12.650000, 12.660000, 12.660000, 12.670000, 12.670000, 12.680000, 12.680000,
 12.680000, 12.690000, 12.690000, 12.700000, 12.700000, 12.700000, 12.710000,
 12.710000, 12.710000, 12.720000, 12.720000, 12.720000, 12.730000, 12.730000,
 12.730000, 12.740000, 12.740000, 12.740000, 12.740000, 12.750000, 12.750000,
 12.750000, 12.750000, 12.760000, 12.760000, 12.760000, 12.760000, 12.760000,
 12.760000, 12.760000, 12.760000, 12.770000, 12.770000, 12.770000, 12.770000,
 12.770000, 12.770000, 12.770000, 12.770000, 12.770000, 12.770000, 12.770000,
 12.770000, 12.760000, 12.760000, 12.760000, 12.760000, 12.760000, 12.760000,
 12.750000, 12.750000, 12.750000, 12.750000, 12.740000, 12.740000, 12.740000,
 12.740000, 12.730000, 12.730000, 12.720000, 12.720000, 12.720000, 12.710000,
 12.710000, 12.700000, 12.700000, 12.690000, 12.690000, 12.680000, 12.670000,
 12.670000, 12.660000, 12.650000, 12.650000, 12.640000, 12.630000, 12.630000,
 12.620000, 12.610000, 12.600000, 12.590000, 12.580000, 12.580000, 12.570000,
 12.560000, 12.550000, 12.540000, 12.530000, 12.520000, 12.510000, 12.500000,
 12.480000, 12.470000, 12.460000, 12.450000, 12.440000, 12.420000, 12.410000,
 12.400000, 12.380000, 12.370000, 12.360000, 12.340000, 12.330000, 12.310000,
 12.300000, 12.280000, 12.270000, 12.250000, 12.230000, 12.220000, 12.200000,
 12.180000}
